##TITLE= BG-40 SCHOTT farveglas tykkelse 1mm. Mrkf.
##JCAMP-DX= 4.24
##DATA TYPE= UV/VIS SPECTRUM
##ORIGIN= Exported PE IR WinLab Data File
##OWNER= Finn Poulsen
##DATE= 96/07/31
##TIME= 14:45:21.00
##SPECTROMETER/DATA SYSTEM= PERKIN-ELMER Lambda 900 UV/VIS/NIR UV
##RESOLUTION= 1,000000
##DELTAX= -2,500000
##XUNITS= nm
##YUNITS= %T
##XFACTOR= 1.00
##YFACTOR= 0,00002384185791015625
##FIRSTX= 1100,00
##LASTX= 350,00
##NPOINTS= 301
##FIRSTY= 82,22
##MAXY= 0,162536
##MINY= 90,83
##XYDATA= (X++(Y..Y))
  1100,000000  70951    68987    66972    65127    63776    
  1087,500000  61384    59016    57396    56077    53944    
  1075,000000  52688    50612    49096    48078    46488    
  1062,500000  44606    43228    42091    41050    39511    
  1050,000000  37937    36924    36087    34988    33739    
  1037,500000  32380    31360    30521    29700    28819    
  1025,000000  28023    27123    26323    25633    24787    
  1012,500000  23987    23265    22633    21904    21261    
  1000,000000  20621    19967    19436    18826    18080    
  987,500000   17439    16850    16456    16098    15501    
  975,000000   15059    14644    14239    13858    13554    
  962,500000   13146    12755    12171    11764    11586    
  950,000000   11189    11029    10789    10380    10033    
  937,500000   9698     9609     9564     9283     9601     
  925,000000   9351     9020     8488     8562     8756     
  912,500000   8781     8290     7851     7563     7568     
  900,000000   7483     7319     7950     7700     7716     
  887,500000   7548     7143     7295     7068     6817     
  875,000000   6880     7928     7542     7613     8060     
  862,500000   7896     7950     7589     7469     7544     
  850,000000   7991     7942     8160     8337     8799     
  837,500000   9005     9036     9402     9744     10025    
  825,000000   10430    10797    11404    12083    12547    
  812,500000   13212    13937    14757    15595    16274    
  800,000000   17227    18508    19767    21070    22509    
  787,500000   24087    25867    27858    29808    31956    
  775,000000   34551    37604    40643    44031    47680    
  762,500000   51744    56373    61065    66761    72721    
  750,000000   79210    86532    94416    103022   112385   
  737,500000   122708   134416   146856   160325   174963   
  725,000000   191154   208715   227644   248142   270062   
  712,500000   293338   318716   345786   375403   407022   
  700,000000   440967   477473   515757   555783   598529   
  687,500000   643823   691322   742693   795482   850780   
  675,000000   907557   966127   1029728  1093688  1158598  
  662,500000   1227567  1298712  1369329  1441565  1516728  
  650,000000   1592961  1670694  1745599  1823952  1902211  
  637,500000   1979890  2058997  2137229  2214000  2288695  
  625,000000   2365004  2440172  2511447  2585368  2656369  
  612,500000   2722819  2788792  2852975  2917079  2979505  
  600,000000   3034766  3093657  3144205  3192824  3234588  
  587,500000   3280966  3327806  3364658  3401557  3443412  
  575,000000   3477148  3507592  3536270  3563622  3593206  
  562,500000   3616353  3637236  3657456  3673744  3690305  
  550,000000   3704067  3714921  3724433  3738436  3749833  
  537,500000   3757780  3765060  3773876  3779437  3784110  
  525,000000   3788374  3787988  3793145  3798378  3800534  
  512,500000   3801058  3805354  3806559  3805020  3805641  
  500,000000   3808123  3808550  3808490  3810021  3807517  
  487,500000   3804650  3804143  3803601  3804686  3803844  
  475,000000   3801193  3799707  3798560  3797951  3798069  
  462,500000   3793952  3795465  3789116  3786574  3787635  
  450,000000   3787169  3784871  3781755  3777313  3776027  
  437,500000   3775336  3775687  3775378  3772826  3766271  
  425,000000   3763110  3759940  3753970  3751013  3751219  
  412,500000   3752496  3743663  3739128  3735593  3729125  
  400,000000   3722449  3723758  3720546  3710104  3703421  
  387,500000   3700418  3694021  3686667  3682652  3675568  
  375,000000   3658760  3646364  3638479  3622205  3607821  
  362,500000   3593420  3571602  3553962  3528371  3494746  
  350,000000   3448616  
##END= 
