##TITLE= Opalglas coloranalysator. Rettet transmittans. F
##JCAMP-DX= 4.24
##DATA TYPE= UV/VIS SPECTRUM
##ORIGIN= Exported PE IR WinLab Data File
##OWNER= Finn Poulsen
##DATE= 96/08/07
##TIME= 14:00:21.00
##SPECTROMETER/DATA SYSTEM= PERKIN-ELMER Lambda 900 UV/VIS/NIR UV
##RESOLUTION= 1,000000
##DELTAX= -2,500000
##XUNITS= nm
##YUNITS= %T
##XFACTOR= 1.00
##YFACTOR= 0,00002384185791015625
##FIRSTX= 1100,00
##LASTX= 350,00
##NPOINTS= 301
##FIRSTY= 7,40
##MAXY= 7,405437
##MINY= 204,70
##XYDATA= (X++(Y..Y))
  1100,000000  8585892  8456271  8355185  8270129  8177519  
  1087,500000  8034065  7936106  7807663  7685214  7586409  
  1075,000000  7475766  7360324  7255681  7138067  7034607  
  1062,500000  6929122  6835702  6728053  6618731  6513188  
  1050,000000  6416781  6321672  6224682  6126961  6035647  
  1037,500000  5949565  5859345  5767340  5677537  5593259  
  1025,000000  5506883  5425268  5347531  5267665  5188323  
  1012,500000  5111186  5034276  4967805  4904851  4834754  
  1000,000000  4767848  4707740  4643421  4582973  4524562  
  987,500000   4462312  4400250  4337735  4276102  4210246  
  975,000000   4143511  4076463  4009824  3934215  3848161  
  962,500000   3767908  3693868  3622169  3552864  3483715  
  950,000000   3412050  3344044  3278521  3213266  3150132  
  937,500000   3087988  3029689  2974270  2912796  2857275  
  925,000000   2799033  2742015  2690304  2637235  2575251  
  912,500000   2521770  2469484  2424091  2371580  2324975  
  900,000000   2276930  2231086  2184605  2135939  2089421  
  887,500000   2043724  2001568  1960881  1918543  1876347  
  875,000000   1831005  1789334  1749736  1710402  1668433  
  862,500000   1637773  1597194  1547064  1500415  1470936  
  850,000000   1442453  1401947  1374457  1338828  1317245  
  837,500000   1289609  1258482  1234808  1202577  1179791  
  825,000000   1159247  1131358  1109798  1088634  1066242  
  812,500000   1051288  1024290  1001697  982278   962148   
  800,000000   945894   930032   912405   897910   882184   
  787,500000   863497   847358   833518   817631   804221   
  775,000000   791406   778429   764996   754198   741880   
  762,500000   732394   721569   709006   698673   689747   
  750,000000   680806   670990   662461   653607   645003   
  737,500000   637097   628522   621525   614604   608109   
  725,000000   600920   595012   589167   581366   575626   
  712,500000   570709   565017   558328   553820   548888   
  700,000000   543646   538784   534358   530675   527113   
  687,500000   522566   517834   514542   510960   508352   
  675,000000   505281   501892   499987   497482   494157   
  662,500000   492367   489436   487097   484467   482254   
  650,000000   480755   478696   476916   475282   473017   
  637,500000   470973   468783   466943   466187   464529   
  625,000000   463141   461819   460017   459016   457651   
  612,500000   456862   455790   454443   454052   452600   
  600,000000   451328   450659   449478   447791   447186   
  587,500000   446485   445482   444872   444362   444094   
  575,000000   442532   441952   440965   439947   439447   
  562,500000   438337   437840   437558   435810   434923   
  550,000000   434588   433865   432788   432234   431224   
  537,500000   430461   430350   429531   428116   427662   
  525,000000   426482   425056   423504   421077   417523   
  512,500000   413309   408542   403722   398760   394954   
  500,000000   393867   394478   396010   397908   399444   
  487,500000   399227   399096   398895   397804   396782   
  475,000000   395598   394520   392117   390059   388114   
  462,500000   385230   383006   381976   381296   381221   
  450,000000   381031   381197   381108   380032   378730   
  437,500000   377909   377124   375835   374542   373467   
  425,000000   372500   370870   370172   368618   367260   
  412,500000   365586   364926   363349   361652   360376   
  400,000000   358781   357667   356141   353665   351464   
  387,500000   348701   345988   342875   340693   338691   
  375,000000   336502   335485   334941   333395   331255   
  362,500000   328721   326051   323026   320157   315637   
  350,000000   310606   
##END= 
